1084
1148.5
577.6
563
459
87.1
941.9
1755.6
1309.3
1893.6
1099.1
755.9
1108.2
1223.5
362
912
1857.4
686.4
165.3
1808.7
718.5
1604.2
394.3
844.5
291.7
989.4
1299.6
2051.6
1387.4
1934.2
374.2
309.3
355.7
300.7
987.8
902.1
1039.1
800.8
1156.6
1020.9
404.4
609.2
1.2
426.8
882.9
893.2
2111.9
1837.2
1153.3
831.2
547.4
1283.1
21.6
814.3
663.8
769.5
869
963.2
955.1
242.4
1189.5
657.3
874.4
2813.3
358.7
348
1392.1
N/A
N/A
808.9
N/A
N/A
N/A
N/A
413.6
N/A
N/A
577.2
1343.7
731.1
199.4
N/A
N/A
869.3
N/A
N/A
N/A
682.9
433.2
107.3
N/A
N/A
470
1.6
N/A
N/A
261.6
1130.2
560.3
1812.2
1580.7
2.3
1003
768.3
1789.5
912.2
1035.6
678.4
133.4
1185.7
642.4
576.2
959.3
1096.9
879.3
1795.4
633.3
1755.6
667
784.7
626.7
1223.5
362
4.8
785.6
1335.8
971.7
1657.5
522.9
811.7
844.5
1115.7
656.9
807.2
1934.2
1259.9
1519.8
735.9
309.3
793.2
784.4
1057.6
1288.2
799.2
902.1
1039.1
1113.9
13.1
1020.9
404.4
520.6
1143.7
358.6
994.4
882.9
2111.9
923.5
674.1
831.2
547.4
N/A
14.2
1251.7
21.6
844.3
663.8
601.2
1177.4
1105.7
753.9
887.2
769.5
504
875.1
1463.8
780.6
1805.1
479.6
1168
1361
889.1
956.9
358.7
942.9
51.1
496.7
320.4
N/A
1514.8
1880.6
1476.4
430.4
504
1729.9
745.9
565.4
698
1142.1
529.6
846
585
516.4
1961.5
1380.3
278.7
456.4
462.8
957.8
1406.7
726.5
1026
287
542.5
530.1
N/A
418.6
832
1102.2
489.3
566.5
579.8
515.6
423.7
432.1
553.3
864.4
369.8
545
194
133.4
1597
249.7
1564.2
496.2
764.5
1071
1419.1
1235.3
1587.1
600.1
1869.7
544.8
447.1
1110.2
528.1
1697.7
570.3
481.5
709.3
578.1
541.3
432.7
936.6
723.6
328.3
22.8
N/A
272
N/A
751.7
326
N/A
404.5
292.2
419.3
653.4
676.5
513.2
N/A
355.9
304.2
N/A
872.2
902.1
1039.1
1612
311.8
1961.5
372.5
785.8
1560.1
520.6
358.6
535.9
N/A
978
960.1
586.4
1283.1
1085.1
520.2
0
844.3
100.3
858.6
1167
238.7
967.6
501.2
N/A
N/A
186.9
15.1
346.9
1437.6
358.7
536.6
642.4
476.9
554.6
696.7
731.7
845.1
819
493.8
803.5
994.5
956.4
1237.6
205.9
665.5
1309.8
901.3
988.6
1082.9
519.3
1755.6
911
1121.7
1223.5
640.5
785.6
715.2
586.2
914.7
1299.6
757.6
1934.2
434.8
743
120.8
1037.3
300.4
312.8
836.5
1304.5
768.5
725.3
563.3
1006
902.1
1039.1
13.1
1961.5
404.4
499.8
1175.8
229.3
882.9
931.5
2111.9
813.6
230.2
831.2
1240.3
742.2
1339.8
418.6
498.5
647.8
999.8
1025.8
1177.4
1107.3
519.3
699.1
798.8
1056.7
446.2
242.4
875.4
1042.6
889.1
753.5
651.2
728.6
358.7
1273.1
551.6
1289
1309.8
1148.5
506.5
792.8
887.2
1589.4
404.5
563
1229.7
748.9
837.6
955.6
690.3
640.3
702.2
1755.6
607.2
1059.1
667
1103.5
774.8
676.4
N/A
967.7
1893.6
1108.2
1223.5
283.7
1067.9
514.2
912
630
785.6
702.3
646
1657.5
1575.8
595.9
1056.4
893
291.7
967.8
12.6
801.7
404.5
653.8
N/A
717.4
419.3
812.2
1159.7
1721.7
1387.4
1223.5
472.6
1934.2
1259.9
1812.6
N/A
676.2
897.1
377.5
309.3
385.1
919.8
732.4
396
2250.1
73.6
813.8
3.7
300.7
987.8
348.8
902.1
407.8
755.3
1039.1
239.4
1113.9
626.8
800.8
94.5
1221.2
404.4
229.3
520.6
0.3
1.2
658.7
1392.6
867.5
426.8
882.9
2111.9
529.7
923.5
706.1
831.2
547.4
1283.1
766.5
656.7
14.2
627.5
310.2
458.3
639.3
814.3
620.4
663.8
1177.4
887.2
1107.3
N/A
1699.4
769.5
743.2
640.9
131.3
194.8
446.2
1073
1702.1
340.6
242.4
N/A
N/A
646.2
1042.6
386.6
213.2
615.1
1215.7
1327.7
1067.4
648.8
625.7
607.5
8
889.1
880.2
2813.3
728.6
1697.3
5.8
358.7
1466.3
357.5
386.2
942.9
687.5
348
1398.4
898.7
601.7
756.5
319.6
N/A
601.2
762.8
784.6
528.1
914.4
1439.4
869.9
591.3
244.5
N/A
813
796.5
1217.9
1880.6
N/A
756.3
1105.6
1122.5
626.7
402.7
N/A
989.4
1934.2
676.5
1168.5
506.4
751.2
1039.1
762.4
833
577
1342.1
1588.8
520.6
882.9
409.1
1367.1
1123.5
176.3
534
650.1
1118.1
493.4
1143.4
1135.1
358.7
528.1
348.4
466.6
1795.4
42.4
202.6
1755.6
667
709.9
480.1
639
626.7
1223.5
553.1
667.2
702.3
1657.5
9.6
291.7
612.6
404.5
377.8
770
798.1
717.4
1387.4
50.9
1934.2
1259.9
N/A
309.3
141.3
300.4
396
511
16.4
300.7
574.5
902.1
407.8
1039.1
865.7
288.7
1113.9
272.4
648.7
353
761.5
1961.5
652.2
1020.9
404.4
553
358.6
572
512.2
357.8
426.8
317.3
882.9
2111.9
1837.2
581.5
1183.7
13.1
258.2
831.2
547.4
1283.1
245.8
169.9
551.1
21.6
276.8
663.8
1105.7
887.2
1107.3
769.5
697.7
439.8
513.2
875.1
769.9
22.8
1463.8
955.1
N/A
677.1
676.4
889.1
706.1
684.4
5.8
358.7
1466.3
942.9
437.5
515
1190.9
572.5
190
528.1
699.3
987.8
879.3
861.7
1795.4
42.4
667
709.9
626.7
1223.5
553.1
1657.5
711.5
1009.7
893
291.7
299.1
694.9
648
1387.4
1223.5
809.8
1934.2
1259.9
781.4
735.9
309.3
300.4
396
708.6
698.3
300.7
1057.6
900.6
902.1
407.8
988
1039.1
886.6
1113.9
761.5
834.4
196.7
1961.5
1028.8
1020.9
882.9
2111.9
1837.2
813.6
649.5
831.2
547.4
1283.1
14.2
676.2
19.6
418.6
665
351.2
21.6
663.8
886.8
468.2
887.2
1107.3
769.5
1045.5
670.7
870.2
1463.8
955.1
487.5
1484.9
614.6
1409.4
471.9
700
502.6
889.1
1314.4
540.8
786.1
684.4
5.8
696.4
358.7
1466.3
807.5
942.9
1014.8
390.1
528.1
354.3
1287
509.2
879.3
458.9
1795.4
299.5
236.1
218.1
941.9
1755.6
667
709.9
130.5
836.9
1893.6
261.4
1108.2
1223.5
283.7
553.1
1657.5
844.5
453.7
893
299.1
571.1
487
442.3
424.7
1387.4
1223.5
1934.2
676.5
309.3
141.3
49.9
300.4
396
511
708.6
300.7
1057.6
1142.1
266.8
196.3
902.1
407.8
1039.1
1113.9
626.8
N/A
359.2
404.4
420.2
165.7
990.4
197
882.9
695.3
2111.9
1837.2
363.3
706.1
657.7
831.2
547.4
355.6
541.7
498.5
795.2
230.5
249.4
368
1177.4
620.4
408.8
791.5
119.1
1463.8
955.1
146.3
333.9
212.3
1042.6
889.1
956.9
928.2
5.8
358.7
1466.3
357.5
572.5
268.5
438.7
601.7
539
699.3
37.6
902
50.6
802.8
794.7
42.4
941.9
N/A
139.5
1893.6
723.6
626.7
1223.5
859.9
205.3
21.7
785.6
1657.5
893
487
N/A
404.5
798.1
167.2
973.1
724.6
604.7
50.9
1934.2
504.4
46.3
1580.7
735.9
264.5
1168
49.7
300.4
695.2
694.8
55.6
35.1
902.1
1039.1
1.3
1113.9
380.3
N/A
1612
976.8
1037.1
518.9
520.6
420.2
358.6
197
868.3
2111.9
1837.2
18.6
649.5
706.1
547.4
52
2445.1
258.8
234.6
59
1153.6
29.5
1446.9
32
603.1
844.3
21.6
2014.4
33.8
1185.7
58.9
575
565.6
31.5
670.7
869
875.1
1463.8
15.1
1035.7
876.1
20
821.3
1559.5
N/A
9.5
142.1
592.8
615.1
1592.8
N/A
538.5
358.7
N/A
1357.5
34.8
700.3
390.1
699.3
37.6
833.4
961.7
520
1638.7
1795.4
794.7
815.9
1107.7
88.4
1537.4
515.4
675
941.9
1100
704.7
863
596.7
667
667.4
928.4
639
626.7
1223.5
553.1
522.9
9.6
711.5
372.6
17.8
1142
1387.4
735.2
1223.5
1934.2
1259.9
N/A
523.3
735.9
813.4
1047.9
671.2
692.3
396
511
995.7
708.6
813.8
16.4
300.7
473.5
1234.1
902.1
1039.1
829.1
1113.9
819
757.4
761.5
905
831.9
1020.9
404.4
2059.8
1228.1
1588.8
520.6
553
358.6
197
1404
1034.1
357.8
882.9
1197.3
2111.9
1837.2
813.6
581.5
18.6
30.5
258.2
433
831.2
547.4
1283.1
1339.4
785.4
496.2
19.6
518.9
665
2039.4
440.4
21.6
663.8
1469.2
887.2
N/A
738.5
1158.4
869
1463.8
955.1
756.1
487.5
1042.6
393.1
203
304.6
889.1
5.8
358.7
1466.3
357.5
1014.8
1617.5
190
423.4
699.3
739.3
204.5
937.5
457
416.2
681.4
646.1
590.5
1100
N/A
753.6
618.5
386.4
685.4
678.8
513.9
382.7
1804.6
1934.2
735.9
499.7
1219.4
902.1
1039.1
741.6
13.1
606.8
820
520.6
553
882.9
620.7
309
313.9
1251.7
20.4
586.1
1233.4
250.5
697.7
340.9
1234.5
509.9
234.8
311.9
461.9
1250
560
771.2
807.1
1023.2
189.5
716
889.1
706.1
871.8
358.7
357.5
792.6
233
291.9
403.6
934.5
756.3
9.6
1934.2
396
1691.8
761.5
520.6
799.5
862.7
1026.6
716.7
550
613.7
358.7
879.3
1400.9
740.3
882.9
1118.5
495.3
667
1112.8
866
545.8
742.2
817
912.5
1057.6
994.5
547.4
283.2
690.1
784.7
550
N/A
358.7
899.7
560.1
882.9
674.3
624.7
822.8
790.4
397.2
1934.2
769.1
811
731.7
260.4
402
249.4
266.1
560.1
414.3
823.6
570.5
1306.7
872.1
1320.3
876.7
617.4
901.3
890.5
404.5
634.5
1755.6
709.9
893.3
1883
751.2
1561.1
553.1
1657.5
751.7
487
893.5
424.7
971.6
1331.8
876
1591
682.1
612.6
453.5
834
750.4
507.6
1975.5
688.5
801.1
902.1
742.1
1754.7
994.5
N/A
1961.5
781
316.9
815.3
553
1841.2
951.3
1027.7
1391.4
840.9
581.5
806.2
377.4
770.7
237.4
831.2
1096.1
868.3
1351.8
1281.7
805.3
878.3
1846.7
268.7
498.5
1557
1768.3
32
602.1
2215.4
773.6
1105
971
426
932.2
961.2
808
956.9
369.1
1466.3
1857.7
1075.7
410.7
382.1
406.1
879.3
742.4
484
42.4
655.3
286.9
709.9
751.2
352.7
1223.5
402.7
702.3
401.8
484.4
419
967.8
404.5
370.1
209.5
243.3
371.5
735.9
307.6
987.8
747
474.9
632.9
902.1
778.3
469.8
418.5
646
448.3
1961.5
675.4
150.4
520.6
197
493.1
373.9
1837.2
813.6
321.1
847.8
545.2
405.1
766.5
162.6
345.1
298.7
208.1
481.6
611.4
480.5
1015
1177.4
1105.7
353.6
216.7
403.8
220.1
575
340.6
661.1
559.5
1463.8
343.6
200.5
430.5
286.3
142.1
437.7
393.1
859.8
70.6
1320.2
302.5
358.7
330.1
564.2
506.7
539
244
528.1
1375.3
465.6
796.1
879.3
593.3
1755.6
667
261.4
755.9
618.5
1108.2
1223.5
470.6
776.5
1808.7
715.2
1471.3
1934.2
1344.7
309.3
1027
396
708.6
423.4
563.3
221.1
N/A
906.8
902.1
407.8
1039.1
741.6
626.8
352.1
13.1
800.8
1156.6
1020.9
651
404.4
681.6
520.6
1.2
882.9
2111.9
1837.2
831.2
547.4
1228.3
14.2
414.7
357.9
537.8
1214.9
21.6
663.8
602
706.9
N/A
695
1463.8
759.5
756.1
1559.5
1361
229
136.4
1040.5
796.4
1294.6
78.1
889.1
505.2
5.8
358.7
1466.3
357.5
898.7
1392.1
307.2
378.1
390.1
18.1
902
442.1
617.4
802.8
564.3
879.3
724.9
1795.4
236.1
941.9
1100
297.7
607.2
988.6
667
667.4
709.9
130.5
295.1
639
626.7
1223.5
553.1
784.2
217.5
1657.5
595.9
844.5
711.5
291.7
1071.5
404.5
1457
1934.2
481.3
416.9
309.3
141.3
708.6
300.7
86.6
N/A
1057.6
2157.8
688.5
902.1
407.8
1039.1
1113.9
761.5
892.3
13.1
1020.9
1588.8
520.6
420.2
553
353.3
426.8
882.9
124.6
2111.9
258.2
923.5
674.1
17.3
831.2
547.4
1283.1
508.6
14.2
677.1
526.3
29.5
761.9
1084.3
21.6
545.9
1366.2
663.8
565.4
1177.4
887.2
1107.3
N/A
769.5
800.8
10.7
1045.5
690.8
63.9
371.2
2048
647.7
875.1
22.8
39.7
1463.8
9
955.1
829.7
1361
1409.4
1193.4
635.1
871.8
5.8
358.7
1466.3
357.5
601.7
539
647.7
649.9
33
244.5
4.4
21.2
667.4
1095
340.8
N/A
98
1056.4
964
30.5
832.8
799.3
N/A
513.2
535.3
N/A
N/A
465.5
1039.1
N/A
1961.5
650.7
229.3
520.6
N/A
882.9
469.7
N/A
564.3
N/A
0
N/A
844.3
1039
422.7
1469.2
753.9
635
697.7
363.9
527.3
712
20
1156.8
26.7
20.2
493.4
533
N/A
1135.1
24.4
N/A
1129.9
528.1
327.6
N/A
N/A
244.5
1795.4
634.5
815.9
42.4
472.1
296.1
941.9
709.9
130.5
N/A
901.1
723.6
1223.5
7.5
150.7
N/A
419
494.7
1056.4
19.4
69.1
967.8
404.5
1541.7
209.5
1934.2
N/A
26
461.6
1047.5
513.2
N/A
735.9
1168
732.4
300.4
995.7
N/A
N/A
N/A
N/A
1057.6
1039.1
1113.9
437.2
1182.9
N/A
N/A
761.5
406.8
520.6
358.6
N/A
868.3
882.9
504.5
561.5
314.5
258.8
584.7
645.1
603.1
359.3
1366.2
620.4
565.4
1177.4
969.9
501.3
340.6
875.1
353.5
321.8
782.1
1035.7
20
821.3
146.3
9.5
53.8
615.1
16.8
1135.1
358.7
1466.3
357.5
386.2
879.3
1183.1
626.7
404.5
608.8
N/A
N/A
1142.1
7.4
520.6
197
N/A
1811.4
388.5
N/A
949.4
1292
1628.6
769.2
667
636.5
1191.1
775.4
725.3
921
1228.7
1034
1409.4
971.2
471
1071.5
607.2
1220.5
9.6
397.2
1198
371.5
455.9
258.2
731.7
703.9
52
898.9
575.3
951.1
550
1237.6
889.1
5.8
704.5
N/A
676.3
327.6
7.5
441.3
33.8
394.2
873.6
735.9
46.7
N/A
N/A
471.4
520.6
576.2
1186
220.6
N/A
1085.1
922
835.3
363.9
554
N/A
186.9
929.9
249.7
771
919.2
286
889.1
917.4
439.9
1400.9
389.4
862.2
871.8
474.4
139.5
1165.1
447.8
553.1
785.6
671.7
299.1
715.7
885.3
397.2
1934.2
1259.9
971.6
309.3
300.4
510.9
1039.1
516.4
1588.8
553
882.9
831.2
547.4
1240.3
545.1
999.9
1123.5
569.2
546.6
418.6
313.9
621
1768.3
1107.3
297.7
541.9
743.2
434.8
577.3
458.9
457.7
658
22.8
494.3
614.6
266.1
1409.4
648.3
741.5
931.7
5.8
358.7
1466.3
364.2
597.9
418.9
734
348.4
1047.7
630
971.5
745.3
1523.2
474.6
1425.4
1175.1
806.1
640.3
975.7
1100
607.2
1111.2
128.2
1275.2
676.4
1893.6
784.4
1223.5
4.8
2576.7
1496.2
9.6
187.1
1602.2
674.8
1375.4
653.9
455.4
382.3
472.6
1934.2
1114.8
59.4
1580.7
815.8
309.3
686.3
1061.2
828.9
833.1
16.4
1224.4
636.6
1047.5
1088.7
902.1
608.2
626.8
404.4
498.6
520.6
798.6
426.8
882.9
813.6
413.5
706.1
547.4
1413.4
972.8
1239
11.6
670.4
418.6
839
905.2
457.4
298.3
1260.2
771.9
1177.4
769.5
743.2
1232.2
1228.7
1158.4
832.1
816.8
39.7
1037.3
845.8
2431.6
888.1
1088.1
1207.4
889.1
1350.3
439.2
5.8
358.7
721.2
1466.3
1398.4
1357.5
822.3
1236.3
528.1
528.4
84.1
N/A
309.4
420.7
640.3
603.6
709.9
399.4
587.2
4.4
91.5
873.6
498.7
1125.5
N/A
498.8
735.9
1.1
209.2
356.6
241.6
358.6
512.2
867.5
287.3
357.8
258.2
2445.1
82.9
785.4
N/A
641.2
620.4
353.6
689.5
220.1
697.7
40.4
42.9
20
146.3
N/A
N/A
286.3
677.6
7.5
270.6
541.7
413.7
807.5
486.6
528.1
699.3
297.3
615
846.1
301.2
1002.7
42.4
941.9
667
480.1
626.7
755.6
553.1
744.9
644
1657.5
398
392.3
654.3
299.1
885.3
476.9
1387.4
1934.2
1259.9
982.7
474.6
309.3
879
300.4
396
511
708.6
300.7
942.8
883.1
563.3
834
902.1
1039.1
761.5
1961.5
1020.9
592.3
358.6
540.3
990.4
882.9
947.3
2111.9
449.7
670.5
258.2
649.5
831.2
547.4
1283.1
547.2
913.6
676.2
32
458.3
21.6
734.1
663.8
500.9
494.5
1107.3
697.7
1051.3
619.9
994.9
494.3
955.1
N/A
346.9
1031.6
579.9
889.1
549.1
6.4
5.8
358.7
1466.3
486.6
369.4
297
390.1
46
392.9
N/A
950.5
244.5
955.6
646.1
947
667.4
1893.6
755.9
553.8
4.8
810.3
21.7
59.9
1179.2
1196.7
N/A
299.1
31.5
973.1
513.2
451.1
377.5
735.9
445.5
1407.6
695.2
55.6
300.1
902.1
1039.1
608.2
898.5
182.7
1612
738.8
1193.9
520.6
358.6
743
1810.4
534.9
867.5
66.9
1837.2
1054.7
766.5
1378.2
676.2
596.3
80.2
1161.3
1051.9
29.5
32
603.1
1138.2
1859.6
602
21.6
72.8
18.5
1336
446.2
1188.6
1702.1
635.1
1146
1338.9
707.1
358.7
26.9
341.9
895.2
1309.8
879.3
734.2
1407.4
785.6
1191.1
810.5
441.3
683
404.5
954.8
735.9
940.1
621
902.1
1039.1
1421
841.6
1961.5
1037.1
520.6
420.2
1596.5
2111.9
547.2
463.8
1177.4
821.3
1549
969.8
889.1
1094.4
1171.8
358.7
386.2
688.9
528.1
629.5
716
N/A
766.6
589.5
1081.7
988.6
941.9
941.9
1409.4
N/A
21.2
359.2
582.8
566.8
788.4
553.1
785.6
1657.5
9.6
755.9
299.1
167.2
885.3
1387.4
490.4
1934.2
1259.9
309.3
577.1
838.6
1039.1
608.2
1330.6
406.8
1020.9
760.9
448.8
834.1
833.6
1030.5
258.2
665.9
831.2
547.4
779.1
11.6
1107.5
21.6
878.2
663.8
597.5
950.1
648.4
550
1409.4
687
648.3
889.1
1053.7
5.8
358.7
1466.3
727.6
597.9
879.3
822.8
994.5
633.9
538.6
358.7
413.6
814.3
313.6
37.6
736.9
752.1
1523.2
498.2
1755.6
682.9
1893.6
582.8
657.3
649.9
1149.3
1509.1
1271.8
545.8
423.5
476.9
1336.5
1113.6
831.7
49.7
815.2
1313.9
407.8
564.5
406.8
1221.2
404.4
746.1
19.8
2111.9
1063.3
533.3
627.5
709
814.3
697.7
424
1088.9
242.4
889.1
631.9
879.3
N/A
739.1
2.6
0.6
374.1
42.4
13.6
472.1
1880.6
863
246.8
626.7
1223.5
602.1
N/A
N/A
593.8
9.3
19.4
31.5
404.5
525.4
861.9
1.6
735.9
1043
1178.6
N/A
15.3
N/A
N/A
300.1
729.2
1047.5
902.1
1.9
626.8
152
1961.5
1020.9
520.6
151.5
229.9
868.3
1837.2
18.6
1167.1
172.2
542.8
8.2
N/A
611.4
359.3
597.5
334.7
N/A
42.9
30.4
N/A
393.1
1508.6
607.5
889.1
798.9
1029.7
N/A
37.6
766.6
879.3
798.1
459
633.3
863
1127.4
667
667.4
1045
582.8
618.5
1223.5
2349
912
887.3
9.6
674.8
893
291.7
1451.1
1527.8
1387.4
2258.5
1934.2
781.4
1347.6
1581.5
309.3
141.3
1976.8
300.4
396
711
511
1084.3
833.1
16.4
300.7
473.5
987.8
221.1
902.1
1039.1
1113.9
761.5
1961.5
1156.6
1020.9
1588.8
520.6
1375
1613.5
1763.2
426.8
882.9
2111.9
1837.2
1378
670.5
831.2
547.4
1413.4
1283.1
534.6
1178.5
21.6
2742.4
1177.4
1107.3
1494.8
1867.5
N/A
832.1
1463.8
1918.9
479.6
955.1
1559.5
340.6
1409.4
592.8
502.6
2428.2
1316
889.1
956.9
5.8
358.7
1466.3
1194.3
942.9
1190.9
1357.5
37.6
347.6
738.5
859.3
N/A
716
649.1
292.4
363.7
340.5
716.9
608.6
534.5
1638.7
457.3
159.8
N/A
258
710.8
385.2
418.7
482.8
N/A
837.6
42.4
159.9
921.8
1100
1755.6
22.8
N/A
357.4
1628.6
709.9
11
1309.3
1893.6
1823.4
1223.5
N/A
N/A
34.6
484.3
N/A
356.6
615.5
21.7
N/A
713
511.8
N/A
342.8
887.3
22
N/A
705.4
844.5
1056.4
241.7
751.7
430.5
437.5
48.7
603.5
28.3
914.7
425.6
542.5
798.1
973.1
653.4
560.1
351.8
1721.7
1387.4
79.7
1223.5
540.9
218.3
1934.2
24.9
245.8
492.7
568.1
9.7
610.2
N/A
200.6
381.6
264.5
1047.9
726.4
94
46.7
355.7
732.4
300.4
4.3
711
511
73.6
708.6
N/A
55.6
454.6
21.2
16.4
N/A
465.5
573.1
1132.7
1234.1
987.8
1057.6
N/A
690.2
729.2
N/A
16.2
902.1
407.8
755.3
1039.1
15.9
502.1
1113.9
626.8
420.4
631.3
353
N/A
994.5
722.5
591.2
N/A
41.7
389.4
761.5
800.8
536
205.7
652.2
387.5
404.4
499.8
229.3
609.2
N/A
226.9
686.6
N/A
583.6
5.7
480.5
449.8
N/A
882.9
2111.9
813.6
581.5
449
132.9
449.7
13.1
770.7
479.2
363.3
706.1
641.7
547.4
1413.4
52
N/A
732.3
569.6
14.2
982
613.5
185.3
518.9
418.6
862.5
537.8
605.6
18.4
253.2
1177.4
597.5
N/A
647.6
617.3
1.7
N/A
250.5
503.4
14.4
334.7
N/A
495.8
541.5
342.6
340.9
30.3
5.7
654.8
16.5
N/A
609.2
N/A
955.1
821.3
1559.5
41.2
141.8
1702.1
N/A
23.2
30.7
11.8
498.4
1042.6
213.2
512.4
N/A
483.1
583.5
427.6
1587.1
90.7
121.7
12.5
491.6
239.2
648.7
787.8
2813.3
18.5
413.7
358.7
191.4
371.9
386.2
N/A
1497.1
314.5
1190.9
1357.5
383.9
428.5
369.4
90.6
990.5
72.9
7.1
N/A
872.7
521.5
21.2
N/A
453.7
429.3
1522.9
513.2
355.9
688.5
1178.7
272.4
909
1283.1
N/A
502
816.6
N/A
1104.5
479.6
346.9
707.7
565
585
671.3
358.7
1466.3
1013.9
353.3
737.5
587.4
588.9
397.2
1934.2
109.4
563.9
418.6
313.9
810.1
358.7
803.5
586.4
574.7
473
1047.7
362.3
554.7
1198.9
197.2
282.3
520
766.6
1375.7
398.2
1175.1
236.1
19
863
495.3
667
N/A
911
657.3
1108.2
1179.2
544.6
9.6
1155.5
39.3
397.2
544.7
657.5
1223.5
287.5
1934.2
742.2
1347.6
1198
160.1
1047.9
309.3
N/A
1061.2
738.9
601.2
300.7
942.8
515.3
762.8
N/A
411.5
293.2
406.8
404.4
347.9
165.7
26.2
882.9
462.6
413.5
731.7
547.4
785.4
425
11.6
1107.5
405.4
418.6
795.2
796.7
172.1
404.1
577.1
N/A
355.4
887.2
N/A
743.2
929.9
N/A
1228.7
869
1463.8
640.1
1135.1
12.5
614.8
N/A
2431.6
1237.6
676.4
5.8
358.7
727.6
428.5
1094.3
879.3
303.6
822.8
218.1
419.6
588.2
2182.4
1808.7
1444.9
2632.5
544.7
514.4
1934.2
2106.5
3119.4
815.2
1104
934.7
746.1
1177.5
1070.7
N/A
4086.9
506.2
402
1153.6
682.9
787.6
863.9
818.3
743.2
929.9
951.1
1592.8
266.1
550.6
1955.1
631.9
1805.1
528.1
1605.2
879.3
682.2
1429.7
626.7
785.6
1070.9
404.5
687.2
1934.2
513.2
735.9
1170.9
334.6
1039.1
N/A
580.7
575.7
195.9
1588.8
520.6
581.5
596.7
516.4
1379
620.4
N/A
759.7
426.9
772.5
757.2
142.1
16.8
217.3
923.4
548.2
517.2
659.5
577.6
498.2
1795.4
904.1
1013.6
1251.2
1755.6
1223.5
344
1387.4
1812.6
735.9
1261.7
811
396
656.6
708.6
902.1
1039.1
1158.7
1588.8
520.6
358.6
798.6
2111.9
1837.2
581.5
258.2
N/A
1401.4
529
831.2
1283.1
496.2
19.6
440.4
864.9
368
724.9
1107.3
1395.8
769.5
386.1
1867.5
782.4
1042.6
246.6
90.7
121.7
1466.3
357.5
736.8
331
369.4
597.9
528.1
297.3
488.9
96.9
42.4
472.1
637.9
203.3
751.2
626.7
785.6
1657.5
607.9
967.8
560.2
404.5
91.5
453.7
1336.5
474.7
490.4
735.9
671.2
838.6
196.3
688.5
902.1
1039.1
577.2
585.1
213.4
461.6
13.1
795.7
520.6
933.3
384.9
668.7
840.9
377.4
1014
831.2
324.8
1123.5
454.8
643.5
412.2
620.4
1177.4
500.9
499.3
765.2
697.7
340.6
342.6
341.3
699.6
880.9
348.6
586.3
1042.6
216.2
871.8
789.1
798.9
276.9
358.7
816.2
796.7
206.1
572.5
369.4
439.9
33
863
21.2
514
810.5
676.5
375.4
1193.3
1113.9
636.1
520.6
802.9
5.7
0
565.4
20
540.1
1044.8
493.4
1067.8
1444
566.9